# LAD - spectrometer data
#------------------------
 
# Measurement values: channel [#] - intensity [adu]
0	60
1	112
2	771
3	92
4	454
5	728
6	591
7	460
8	472
9	556
10	319
11	448
12	216
13	241
14	295
15	176
 
# Reconstruction values: lambda [nm] - intensity [%]
335	100
336	97.8076
337	95.5408
338	93.2018
339	90.7931
340	88.3183
341	85.7817
342	83.1884
343	80.5447
344	77.8576
345	75.1357
346	72.3885
347	69.6269
348	66.863
349	64.1105
350	61.3843
351	58.7006
352	56.077
353	53.5324
354	51.0865
355	48.7601
356	46.5744
357	44.5511
358	42.7114
359	41.0761
360	39.6646
361	38.4946
362	37.581
363	36.9355
364	36.5659
365	36.4748
366	36.6598
367	37.1119
368	37.8161
369	38.7503
370	39.8861
371	41.1884
372	42.6164
373	44.1245
374	45.6636
375	47.1823
376	48.6287
377	49.9523
378	51.1057
379	52.0463
380	52.7377
381	53.1512
382	53.2666
383	53.0725
384	52.5668
385	51.7559
386	50.6547
387	49.2851
388	47.6751
389	45.8573
390	43.8677
391	41.7438
392	39.5238
393	37.2449
394	34.942
395	32.6473
396	30.389
397	28.191
398	26.0726
399	24.0481
400	22.1275
401	20.3162
402	18.6162
403	17.026
404	15.5421
405	14.1594
406	12.8721
407	11.6746
408	10.5624
409	9.53195
410	8.5818
411	7.71229
412	6.92564
413	6.22573
414	5.61776
415	5.10777
416	4.70216
417	4.40712
418	4.22819
419	4.1698
420	4.2349
421	4.42473
422	4.73865
423	5.17404
424	5.72631
425	6.38897
426	7.15377
427	8.01084
428	8.94892
429	9.95558
430	11.0174
431	12.1205
432	13.2501
433	14.3918
434	15.5309
435	16.6531
436	17.7445
437	18.7923
438	19.7842
439	20.7093
440	21.5578
441	22.3212
442	22.9926
443	23.5664
444	24.0388
445	24.4073
446	24.6709
447	24.83
448	24.8866
449	24.8434
450	24.7046
451	24.4751
452	24.1606
453	23.7675
454	23.3025
455	22.7728
456	22.1854
457	21.5477
458	20.8667
459	20.1492
460	19.4018
461	18.6306
462	17.8414
463	17.0392
464	16.2288
465	15.4142
466	14.599
467	13.7862
468	12.9782
469	12.177
470	11.3843
471	10.6009
472	9.82776
473	9.06514
474	8.31316
475	7.57169
476	6.84044
477	6.11897
478	5.40678
479	4.70335
480	4.00819
481	3.32089
482	2.64115
483	1.96882
484	1.30395
485	0.646813
486	-0.00209346
487	-0.642002
488	-1.27188
489	-1.89041
490	-2.496
491	-3.0868
492	-3.6607
493	-4.21532
494	-4.7481
495	-5.25625
496	-5.73682
497	-6.18673
498	-6.60278
499	-6.9817
500	-7.32016
501	-7.61486
502	-7.86247
503	-8.05976
504	-8.20355
505	-8.29078
506	-8.31855
507	-8.28409
508	-8.18485
509	-8.01848
510	-7.7829
511	-7.47628
512	-7.09708
513	-6.6441
514	-6.1165
515	-5.51381
516	-4.83599
517	-4.08346
518	-3.25712
519	-2.35842
520	-1.38936
521	-0.352564
522	0.748716
523	1.91054
524	3.12825
525	4.39647
526	5.70908
527	7.05918
528	8.43912
529	9.84052
530	11.2543
531	12.6706
532	14.079
533	15.4686
534	16.8278
535	18.1449
536	19.4076
537	20.6036
538	21.7203
539	22.7454
540	23.6667
541	24.472
542	25.1498
543	25.6892
544	26.0797
545	26.3119
546	26.3773
547	26.2684
548	25.9795
549	25.506
550	24.8452
551	23.9966
552	22.9615
553	21.7438
554	20.3502
555	18.7898
556	17.075
557	15.2208
558	13.2455
559	11.1703
560	9.01895
561	6.81788
562	4.59562
563	2.38238
564	0.209566
565	-1.89086
566	-3.88695
567	-5.74748
568	-7.44251
569	-8.9441
570	-10.2268
571	-11.2682
572	-12.0494
573	-12.5553
574	-12.7752
575	-12.7024
576	-12.335
577	-11.6757
578	-10.7317
579	-9.51477
580	-8.04087
581	-6.33017
582	-4.40652
583	-2.29706
584	-0.0316977
585	2.35745
586	4.83674
587	7.37172
588	9.92783
589	12.4711
590	14.969
591	17.3908
592	19.7085
593	21.897
594	23.9348
595	25.8038
596	27.4899
597	28.9829
598	30.2764
599	31.3677
600	32.2573
601	32.949
602	33.4495
603	33.7677
604	33.9145
605	33.9024
606	33.745
607	33.4564
608	33.0512
609	32.5439
610	31.9483
611	31.278
612	30.5454
613	29.7621
614	28.9384
615	28.0839
616	27.2067
617	26.3142
618	25.4129
619	24.5084
620	23.6057
621	22.7094
622	21.8235
623	20.9519
624	20.0981
625	19.2657
626	18.4579
627	17.6778
628	16.9283
629	16.2123
630	15.5322
631	14.89
632	14.2875
633	13.7259
634	13.2057
635	12.7272
636	12.2896
637	11.8917
638	11.5319
639	11.2076
640	10.9159
641	10.6535
642	10.4165
643	10.2009
644	10.0024
645	9.81653
646	9.63894
647	9.46532
648	9.29156
649	9.11382
650	8.92864
651	8.73301
652	8.52441
653	8.30089
654	8.06113
655	7.80441
656	7.53066
657	7.24043
658	6.93489
659	6.61572
660	6.28512
661	5.9457
662	5.60038
663	5.2523
664	4.90475
665	4.56101
666	4.22434
667	3.8978
668	3.58425
669	3.28624
670	3.00598
671	2.74532
672	2.50568
673	2.2881
674	2.09319
675	1.92118
676	1.77192
677	1.6449
678	1.53931
679	1.45404
680	1.38772
681	1.33876
682	1.30541
683	1.28576
684	1.27779
685	1.27941
686	1.28852
687	1.30301
688	1.32082
689	1.33997
690	1.35859
691	1.37498
692	1.3876
693	1.39511
694	1.39639
695	1.39053
696	1.37688
697	1.35496
698	1.32453
699	1.2855
700	1.23796
701	1.18212
702	1.11826
703	1.04678
704	0.9681
705	0.882685
706	0.79103
707	0.693663
708	0.591146
709	0.484089
710	0.373169
711	0.259143
712	0.142867
713	0.0253031
714	-0.0924731
715	-0.209276
716	-0.323822
717	-0.43475
718	-0.540653
719	-0.640108
720	-0.73172
721	-0.814162
722	-0.886211
723	-0.946782
724	-0.994961
725	-1.03002
726	-1.05143
727	-1.05887
728	-1.0522
729	-1.0315
730	-0.996972
731	-0.949006
732	-0.888098
733	-0.814849
734	-0.729936
735	-0.634095
736	-0.528092
737	-0.412714
738	-0.288749
739	-0.156974
740	-0.0181447