# LAD - spectrometer data
#------------------------
 
# Measurement values: channel [#] - intensity [adu]
0	60
1	112
2	824
3	96
4	481
5	771
6	632
7	487
8	504
9	591
10	344
11	480
12	227
13	255
14	319
15	192
 
# Reconstruction values: lambda [nm] - intensity [%]
335	100
336	97.8201
337	95.5664
338	93.2407
339	90.8459
340	88.3853
341	85.8632
342	83.2849
343	80.6564
344	77.985
345	75.279
346	72.5479
347	69.8026
348	67.0552
349	64.3192
350	61.6094
351	58.9421
352	56.3348
353	53.806
354	51.3757
355	49.0643
356	46.8929
357	44.8831
358	43.056
359	41.4321
360	40.0307
361	38.8694
362	37.9629
363	37.3227
364	36.9565
365	36.8668
366	37.051
367	37.5001
368	38.199
369	39.1256
370	40.2515
371	41.5416
372	42.9553
373	44.4471
374	45.968
375	47.4669
376	48.8922
377	50.1937
378	51.3241
379	52.2412
380	52.909
381	53.299
382	53.3913
383	53.1748
384	52.6474
385	51.8161
386	50.6957
387	49.3083
388	47.6819
389	45.8492
390	43.8462
391	41.7105
392	39.4801
393	37.1922
394	34.8817
395	32.5806
396	30.3171
397	28.1149
398	25.9932
399	23.9664
400	22.0441
401	20.2319
402	18.5315
403	16.9415
404	15.4581
405	14.0762
406	12.7901
407	11.5941
408	10.4834
409	9.45471
410	8.50637
411	7.63871
412	6.8539
413	6.1558
414	5.54958
415	5.04126
416	4.63721
417	4.34362
418	4.166
419	4.10878
420	4.17493
421	4.36569
422	4.68042
423	5.11653
424	5.66945
425	6.33272
426	7.09811
427	7.95579
428	8.89454
429	9.90194
430	10.9647
431	12.0687
432	13.1996
433	14.3427
434	15.4835
435	16.6076
436	17.7014
437	18.7518
438	19.7467
439	20.6751
440	21.5272
441	22.2946
442	22.9703
443	23.5488
444	24.0262
445	24.4
446	24.6691
447	24.8341
448	24.8965
449	24.8595
450	24.7269
451	24.5037
452	24.1956
453	23.8088
454	23.3501
455	22.8264
456	22.245
457	21.613
458	20.9375
459	20.2252
460	19.4826
461	18.7159
462	17.9307
463	17.1321
464	16.3248
465	15.5128
466	14.6996
467	13.8882
468	13.0812
469	12.2803
470	11.4872
471	10.703
472	9.92822
473	9.1634
474	8.40858
475	7.66364
476	6.92828
477	6.20208
478	5.48454
479	4.77517
480	4.07349
481	3.37911
482	2.69176
483	2.01132
484	1.33787
485	0.671716
486	0.0133927
487	-0.63629
488	-1.27625
489	-1.90514
490	-2.52132
491	-3.12288
492	-3.70766
493	-4.27326
494	-4.81703
495	-5.33616
496	-5.82764
497	-6.28835
498	-6.71505
499	-7.10441
500	-7.45309
501	-7.75771
502	-8.01495
503	-8.2215
504	-8.37419
505	-8.46991
506	-8.50574
507	-8.4789
508	-8.38681
509	-8.22711
510	-7.99769
511	-7.69673
512	-7.32268
513	-6.87432
514	-6.35081
515	-5.75169
516	-5.07691
517	-4.3269
518	-3.50256
519	-2.60535
520	-1.63727
521	-0.600956
522	0.500318
523	1.6626
524	2.88122
525	4.15079
526	5.46516
527	6.8174
528	8.19985
529	9.6041
530	11.021
531	12.4408
532	13.8529
533	15.2464
534	16.6098
535	17.9312
536	19.1983
537	20.3989
538	21.5203
539	22.5501
540	23.4761
541	24.2862
542	24.9688
543	25.5129
544	25.9082
545	26.1451
546	26.2152
547	26.111
548	25.8268
549	25.3579
550	24.7017
551	23.8577
552	22.8272
553	21.6141
554	20.2251
555	18.6694
556	16.9592
557	15.1097
558	13.1391
559	11.0685
560	8.9218
561	6.72539
562	4.50777
563	2.29912
564	0.130832
565	-1.96515
566	-3.95691
567	-5.81322
568	-7.50419
569	-9.00189
570	-10.2809
571	-11.3188
572	-12.0967
573	-12.5997
574	-12.8167
575	-12.7414
576	-12.3718
577	-11.7106
578	-10.765
579	-9.54671
580	-8.07182
581	-6.36047
582	-4.43652
583	-2.32714
584	-0.0622847
585	2.32592
586	4.8038
587	7.33684
588	9.89045
589	12.4306
590	14.9247
591	17.3421
592	19.6545
593	21.837
594	23.8678
595	25.729
596	27.4064
597	28.8898
598	30.1728
599	31.2526
600	32.1299
601	32.8087
602	33.2955
603	33.5995
604	33.7317
605	33.7047
606	33.5322
607	33.2288
608	32.8091
609	32.2877
610	31.6789
611	30.9963
612	30.2525
613	29.4592
614	28.6271
615	27.7657
616	26.8834
617	25.9876
618	25.0848
619	24.1806
620	23.2802
621	22.388
622	21.508
623	20.6441
624	19.7997
625	18.978
626	18.1823
627	17.4155
628	16.6804
629	15.9796
630	15.3153
631	14.6894
632	14.1034
633	13.5584
634	13.0547
635	12.5923
636	12.1705
637	11.7879
638	11.4426
639	11.1321
640	10.8534
641	10.603
642	10.3771
643	10.1716
644	9.98225
645	9.80461
646	9.63432
647	9.4671
648	9.29888
649	9.12586
650	8.94464
651	8.75226
652	8.54625
653	8.32473
654	8.08643
655	7.83069
656	7.55749
657	7.26744
658	6.96175
659	6.64216
660	6.31091
661	5.97065
662	5.62434
663	5.27516
664	4.9264
665	4.58142
666	4.24345
667	3.9156
668	3.60073
669	3.30142
670	3.01988
671	2.75796
672	2.51709
673	2.29831
674	2.10223
675	1.92908
676	1.77869
677	1.65057
678	1.54388
679	1.4575
680	1.39007
681	1.33998
682	1.30548
683	1.28463
684	1.27543
685	1.27579
686	1.28358
687	1.2967
688	1.31311
689	1.33081
690	1.34798
691	1.36289
692	1.37405
693	1.38013
694	1.38005
695	1.37293
696	1.35813
697	1.33525
698	1.30405
699	1.26451
700	1.21675
701	1.16102
702	1.09766
703	1.02707
704	0.949732
705	0.866128
706	0.776776
707	0.682217
708	0.583018
709	0.479787
710	0.373187
711	0.263956
712	0.152914
713	0.0409843
714	-0.0708087
715	-0.181337
716	-0.289382
717	-0.393652
718	-0.492812
719	-0.585513
720	-0.670433
721	-0.746315
722	-0.811998
723	-0.86646
724	-0.908836
725	-0.93844
726	-0.954779
727	-0.957554
728	-0.946651
729	-0.92214
730	-0.884246
731	-0.833341
732	-0.769913
733	-0.694548
734	-0.607905
735	-0.510697
736	-0.403671
737	-0.287586
738	-0.163208
739	-0.0312887
740	0.10744