# LAD - spectrometer data
#------------------------
 
# Measurement values: channel [#] - intensity [adu]
0	62
1	120
2	847
3	97
4	496
5	798
6	647
7	504
8	513
9	611
10	352
11	496
12	231
13	263
14	335
15	192
 
# Reconstruction values: lambda [nm] - intensity [%]
335	100
336	97.8088
337	95.5434
338	93.2057
339	90.7984
340	88.3251
341	85.79
342	83.1982
343	80.556
344	77.8706
345	75.1504
346	72.4049
347	69.645
348	66.8829
349	64.1321
350	61.4076
351	58.7256
352	56.1037
353	53.5607
354	51.1164
355	48.7914
356	46.6071
357	44.585
358	42.7464
359	41.112
360	39.7011
361	38.5315
362	37.618
363	36.9723
364	36.6021
365	36.5101
366	36.6937
367	37.144
368	37.8459
369	38.7774
370	39.9099
371	41.2084
372	42.6322
373	44.1356
374	45.6694
375	47.1824
376	48.6227
377	49.9399
378	51.0865
379	52.0201
380	52.7043
381	53.1105
382	53.2185
383	53.017
384	52.504
385	51.686
386	50.578
387	49.2018
388	47.5856
389	45.7621
390	43.7673
391	41.6388
392	39.4148
393	37.1325
394	34.827
395	32.5305
396	30.2712
397	28.073
398	25.9553
399	23.9324
400	22.0143
401	20.2065
402	18.5107
403	16.9257
404	15.4478
405	14.0718
406	12.7919
407	11.6024
408	10.4986
409	9.47707
410	8.53608
411	7.67587
412	6.89856
413	6.20792
414	5.60905
415	5.1079
416	4.71076
417	4.42379
418	4.25244
419	4.20111
420	4.27273
421	4.46851
422	4.78781
423	5.228
424	5.78451
425	6.45087
426	7.21884
427	8.0786
428	9.0189
429	10.0273
430	11.0906
431	12.1946
432	13.325
433	14.467
434	15.6062
435	16.7283
436	17.8194
437	18.8667
438	19.858
439	20.7823
440	21.6298
441	22.3923
442	23.0626
443	23.6354
444	24.1066
445	24.474
446	24.7364
447	24.8945
448	24.9498
449	24.9056
450	24.7656
451	24.535
452	24.2195
453	23.8253
454	23.3593
455	22.8285
456	22.2401
457	21.6012
458	20.9191
459	20.2005
460	19.452
461	18.6796
462	17.8891
463	17.0856
464	16.2737
465	15.4576
466	14.6407
467	13.8261
468	13.0163
469	12.2131
470	11.4182
471	10.6325
472	9.85683
473	9.09154
474	8.33671
475	7.59222
476	6.85775
477	6.13287
478	5.41709
479	4.70988
480	4.01075
481	3.31931
482	2.63525
483	1.95843
484	1.28893
485	0.627013
486	-0.0268005
487	-0.671728
488	-1.30671
489	-1.93043
490	-2.54127
491	-3.13734
492	-3.71652
493	-4.27641
494	-4.81441
495	-5.32771
496	-5.81335
497	-6.26821
498	-6.68905
499	-7.07259
500	-7.41549
501	-7.71439
502	-7.96596
503	-8.16693
504	-8.3141
505	-8.4044
506	-8.43488
507	-8.40279
508	-8.30553
509	-8.14075
510	-7.90633
511	-7.60044
512	-7.22153
513	-6.76839
514	-6.24015
515	-5.63635
516	-4.95694
517	-4.20233
518	-3.37342
519	-2.47167
520	-1.49907
521	-0.458263
522	0.647491
523	1.81423
524	3.0373
525	4.31128
526	5.63002
527	6.9866
528	8.37333
529	9.78178
530	11.2028
531	12.6265
532	14.0425
533	15.4398
534	16.8066
535	18.1313
536	19.4014
537	20.6047
538	21.7284
539	22.7602
540	23.6878
541	24.499
542	25.1823
543	25.7265
544	26.1214
545	26.3573
546	26.4257
547	26.3193
548	26.0321
549	25.5596
550	24.8992
551	24.0502
552	23.0141
553	21.7948
554	20.399
555	18.8359
556	17.1178
557	15.26
558	13.2807
559	11.2012
560	9.04543
561	6.83982
562	4.61302
563	2.39535
564	0.21829
565	-1.88609
566	-3.88576
567	-5.74939
568	-7.447
569	-8.95054
570	-10.2345
571	-11.2765
572	-12.0575
573	-12.5625
574	-12.7806
575	-12.7053
576	-12.3346
577	-11.6713
578	-10.7227
579	-9.50042
580	-8.02071
581	-6.30378
582	-4.37356
583	-2.25734
584	0.0148555
585	2.41076
586	4.89661
587	7.43777
588	9.99955
589	12.5479
590	15.0499
591	17.475
592	19.7949
593	21.9845
594	24.022
595	25.8895
596	27.5727
597	29.0615
598	30.3493
599	31.4336
600	32.315
601	32.9973
602	33.4874
603	33.7943
604	33.9291
605	33.9045
606	33.7342
607	33.4327
608	33.0147
609	32.4949
610	31.8875
611	31.2061
612	30.4634
613	29.6712
614	28.8399
615	27.9792
616	27.0974
617	26.2019
618	25.2993
619	24.3951
620	23.4944
621	22.6018
622	21.7212
623	20.8563
624	20.0108
625	19.1878
626	18.3905
627	17.6219
628	16.8847
629	16.1816
630	15.5148
631	14.8861
632	14.2972
633	13.749
634	13.2419
635	12.7759
636	12.3503
637	11.9636
638	11.6141
639	11.2991
640	11.0157
641	10.7605
642	10.5295
643	10.3187
644	10.1239
645	9.94055
646	9.76436
647	9.59106
648	9.41659
649	9.23717
650	9.04942
651	8.85041
652	8.6377
653	8.40946
654	8.16444
655	7.90205
656	7.6223
657	7.32587
658	7.01402
659	6.68854
660	6.35172
661	6.00627
662	5.65518
663	5.30168
664	4.94911
665	4.60082
666	4.26008
667	3.93002
668	3.61348
669	3.31303
670	3.03088
671	2.76884
672	2.52831
673	2.31028
674	2.11532
675	1.94361
676	1.79492
677	1.66869
678	1.56403
679	1.47976
680	1.41444
681	1.36641
682	1.33385
683	1.31479
684	1.30714
685	1.30879
686	1.31758
687	1.33137
688	1.34809
689	1.36575
690	1.38253
691	1.39672
692	1.40684
693	1.41162
694	1.41001
695	1.40122
696	1.38467
697	1.36003
698	1.32717
699	1.28616
700	1.23719
701	1.18062
702	1.11687
703	1.04643
704	0.969855
705	0.887684
706	0.800489
707	0.708846
708	0.613343
709	0.514593
710	0.413248
711	0.310015
712	0.205673
713	0.101084
714	-0.00279903
715	-0.104933
716	-0.204192
717	-0.299387
718	-0.389284
719	-0.472643
720	-0.548243
721	-0.614925
722	-0.671622
723	-0.71739
724	-0.751437
725	-0.773138
726	-0.782045
727	-0.777894
728	-0.760595
729	-0.730228
730	-0.687024
731	-0.631346
732	-0.563669
733	-0.48456
734	-0.394655
735	-0.29464
736	-0.185231
737	-0.0671588
738	0.0588433
739	0.192054
740	0.33177