# LAD - spectrometer data
#------------------------
 
# Measurement values: channel [#] - intensity [adu]
0	62
1	120
2	844
3	96
4	496
5	796
6	647
7	504
8	513
9	609
10	352
11	496
12	231
13	263
14	332
15	192
 
# Reconstruction values: lambda [nm] - intensity [%]
335	100
336	97.8089
337	95.5434
338	93.2058
339	90.7986
340	88.3253
341	85.7902
342	83.1985
343	80.5563
344	77.8709
345	75.1507
346	72.4052
347	69.6454
348	66.8833
349	64.1325
350	61.408
351	58.7261
352	56.1042
353	53.5612
354	51.1169
355	48.792
356	46.6078
357	44.5857
358	42.7472
359	41.1128
360	39.702
361	38.5324
362	37.6189
363	36.9733
364	36.6032
365	36.5112
366	36.6948
367	37.1452
368	37.8472
369	38.7788
370	39.9113
371	41.2099
372	42.6336
373	44.1371
374	45.6709
375	47.1839
376	48.6242
377	49.9414
378	51.088
379	52.0214
380	52.7056
381	53.1117
382	53.2196
383	53.018
384	52.5048
385	51.6867
386	50.5785
387	49.2022
388	47.5858
389	45.7622
390	43.7671
391	41.6385
392	39.4143
393	37.1318
394	34.8262
395	32.5296
396	30.2701
397	28.0718
398	25.954
399	23.9311
400	22.0129
401	20.205
402	18.5093
403	16.9243
404	15.4464
405	14.0704
406	12.7906
407	11.6012
408	10.4975
409	9.47614
410	8.5353
411	7.67526
412	6.89813
413	6.20769
414	5.60901
415	5.10806
416	4.71113
417	4.42435
418	4.2532
419	4.20205
420	4.27383
421	4.46976
422	4.78919
423	5.22949
424	5.78608
425	6.4525
426	7.2205
427	8.08025
428	9.02051
429	10.0289
430	11.092
431	12.1959
432	13.3261
433	14.4679
434	15.6068
435	16.7285
436	17.8193
437	18.8662
438	19.8571
439	20.7809
440	21.628
441	22.3899
442	23.0596
443	23.6318
444	24.1025
445	24.4692
446	24.731
447	24.8884
448	24.9431
449	24.8982
450	24.7576
451	24.5263
452	24.2101
453	23.8153
454	23.3487
455	22.8173
456	22.2283
457	21.589
458	20.9064
459	20.1873
460	19.4384
461	18.6656
462	17.8748
463	17.071
464	16.259
465	15.4427
466	14.6258
467	13.8112
468	13.0013
469	12.1983
470	11.4035
471	10.6181
472	9.84277
473	9.07788
474	8.32353
475	7.57958
476	6.84574
477	6.12156
478	5.40655
479	4.70018
480	4.00198
481	3.31152
482	2.62852
483	1.95284
484	1.28452
485	0.623848
486	-0.0286637
487	-0.67224
488	-1.30583
489	-1.92811
490	-2.53748
491	-3.13207
492	-3.70973
493	-4.2681
494	-4.80458
495	-5.31636
496	-5.8005
497	-6.25387
498	-6.67327
499	-7.0554
500	-7.39694
501	-7.69454
502	-7.94489
503	-8.14471
504	-8.29083
505	-8.38017
506	-8.4098
507	-8.37697
508	-8.2791
509	-8.11385
510	-7.87911
511	-7.57304
512	-7.19412
513	-6.74113
514	-6.21322
515	-5.60993
516	-4.93122
517	-4.17751
518	-3.3497
519	-2.44923
520	-1.47814
521	-0.439034
522	0.66481
523	1.82944
524	3.0502
525	4.32168
526	5.63773
527	6.99146
528	8.37517
529	9.78047
530	11.1982
531	12.6186
532	14.0311
533	15.4248
534	16.7881
535	18.1092
536	19.3759
537	20.5757
538	21.6961
539	22.7247
540	23.6493
541	24.4577
542	25.1384
543	25.6804
544	26.0732
545	26.3075
546	26.3746
547	26.2673
548	25.9796
549	25.5071
550	24.847
551	23.9989
552	22.964
553	21.7464
554	20.3527
555	18.7921
556	17.0768
557	15.2222
558	13.2463
559	11.1705
560	9.01853
561	6.81688
562	4.59408
563	2.38038
564	0.20719
565	-1.8935
566	-3.88973
567	-5.75024
568	-7.44512
569	-8.9464
570	-10.2286
571	-11.2694
572	-12.0498
573	-12.5549
574	-12.7737
575	-12.6997
576	-12.3312
577	-11.6706
578	-10.7253
579	-9.50696
580	-8.03175
581	-6.31979
582	-4.39497
583	-2.28446
584	-0.0182171
585	2.37161
586	4.85135
587	7.3865
588	9.94247
589	12.4853
590	14.9823
591	17.4029
592	19.7189
593	21.9053
594	23.9405
595	25.8065
596	27.4892
597	28.9784
598	30.2677
599	31.3542
600	32.2389
601	32.9254
602	33.4204
603	33.733
604	33.8741
605	33.8564
606	33.6933
607	33.3994
608	32.989
609	32.4769
610	31.877
611	31.2028
612	30.467
613	29.6811
614	28.8555
615	27.9999
616	27.1223
617	26.2303
618	25.3302
619	24.4277
620	23.5279
621	22.6351
622	21.7534
623	20.8867
624	20.0384
625	19.2119
626	18.4104
627	17.637
628	16.8945
629	16.1855
630	15.5125
631	14.8774
632	14.2818
633	13.7269
634	13.2131
635	12.7406
636	12.3085
637	11.9158
638	11.5605
639	11.2403
640	10.9521
641	10.6925
642	10.4578
643	10.244
644	10.0466
645	9.86145
646	9.68408
647	9.51026
648	9.3359
649	9.15724
650	8.97085
651	8.77378
652	8.56358
653	8.33835
654	8.09682
655	7.83833
656	7.56286
657	7.27101
658	6.96399
659	6.64354
660	6.31188
661	5.97165
662	5.62579
663	5.27746
664	4.92996
665	4.58657
666	4.25054
667	3.92492
668	3.61254
669	3.31594
670	3.03729
671	2.77839
672	2.54063
673	2.325
674	2.13205
675	1.96198
676	1.81456
677	1.68925
678	1.58518
679	1.50117
680	1.43581
681	1.38747
682	1.35436
683	1.33451
684	1.32589
685	1.32639
686	1.33389
687	1.34627
688	1.36149
689	1.37759
690	1.39274
691	1.40527
692	1.41372
693	1.41682
694	1.41353
695	1.40305
696	1.38482
697	1.3585
698	1.32394
699	1.28119
700	1.23045
701	1.17205
702	1.10638
703	1.03393
704	0.955205
705	0.870748
706	0.781106
707	0.686839
708	0.588525
709	0.486771
710	0.382227
711	0.275605
712	0.167694
713	0.0593715
714	-0.0483872
715	-0.154513
716	-0.257849
717	-0.35717
718	-0.451209
719	-0.538685
720	-0.618342
721	-0.688983
722	-0.749508
723	-0.798942
724	-0.836467
725	-0.861435
726	-0.873382
727	-0.87203
728	-0.857283
729	-0.829218
730	-0.788065
731	-0.734192
732	-0.668083
733	-0.590312
734	-0.501529
735	-0.40243
736	-0.293747
737	-0.176224
738	-0.0506088
739	0.0823628
740	0.221975