# LAD - spectrometer data
#------------------------
 
# Measurement values: channel [#] - intensity [adu]
0	51
1	96
2	668
3	81
4	415
5	624
6	527
7	396
8	419
9	480
10	284
11	385
12	199
13	227
14	248
15	158
 
# Reconstruction values: lambda [nm] - intensity [%]
335	100
336	97.8139
337	95.5536
338	93.2212
339	90.8195
340	88.3518
341	85.8225
342	83.2366
343	80.6005
344	77.9213
345	75.2073
346	72.4681
347	69.7146
348	66.9589
349	64.2146
350	61.4966
351	58.821
352	56.2055
353	53.6688
354	51.2305
355	48.9115
356	46.7329
357	44.7161
358	42.8825
359	41.2527
360	39.846
361	38.6799
362	37.7694
363	37.1261
364	36.7576
365	36.6665
366	36.8502
367	37.2999
368	38.0003
369	38.9295
370	40.0589
371	41.3535
372	42.7726
373	44.2706
374	45.7985
375	47.305
376	48.7383
377	50.0482
378	51.1873
379	52.1132
380	52.7897
381	53.1883
382	53.2889
383	53.0804
384	52.5606
385	51.7364
386	50.6225
387	49.241
388	47.62
389	45.7922
390	43.7935
391	41.6617
392	39.4349
393	37.1501
394	34.8425
395	32.5442
396	30.2833
397	28.0837
398	25.9647
399	23.9407
400	22.0215
401	20.2125
402	18.5156
403	16.9294
404	15.4502
405	14.0728
406	12.7914
407	11.6003
408	10.4949
409	9.47155
410	8.52871
411	7.66659
412	6.88731
413	6.19468
414	5.59378
415	5.09059
416	4.69142
417	4.40241
418	4.22904
419	4.1757
420	4.24532
421	4.43913
422	4.75646
423	5.19471
424	5.7493
425	6.41376
426	7.17984
427	8.03773
428	8.9762
429	9.98283
430	11.0443
431	12.1466
432	13.2753
433	14.4157
434	15.5534
435	16.674
436	17.7638
437	18.8098
438	19.7999
439	20.7232
440	21.5699
441	22.3317
442	23.0015
443	23.5739
444	24.045
445	24.4124
446	24.675
447	24.8335
448	24.8895
449	24.8461
450	24.7072
451	24.4779
452	24.1638
453	23.7714
454	23.3073
455	22.7786
456	22.1925
457	21.5562
458	20.8768
459	20.1611
460	19.4156
461	18.6465
462	17.8594
463	17.0595
464	16.2514
465	15.4393
466	14.6265
467	13.8162
468	13.0107
469	12.2121
470	11.4219
471	10.6411
472	9.8704
473	9.11024
474	8.36068
475	7.62156
476	6.89259
477	6.17331
478	5.46322
479	4.76179
480	4.06851
481	3.38296
482	2.70483
483	2.03397
484	1.3704
485	0.714379
486	0.0664031
487	-0.57278
488	-1.20215
489	-1.82041
490	-2.42599
491	-3.01706
492	-3.59151
493	-4.147
494	-4.68099
495	-5.19072
496	-5.67326
497	-6.12556
498	-6.54445
499	-6.92669
500	-7.26901
501	-7.56811
502	-7.82073
503	-8.02367
504	-8.17379
505	-8.26809
506	-8.30369
507	-8.2779
508	-8.18821
509	-8.03232
510	-7.8082
511	-7.51407
512	-7.14844
513	-6.71018
514	-6.19846
515	-5.61288
516	-4.95343
517	-4.22055
518	-3.41519
519	-2.53878
520	-1.59334
521	-0.581468
522	0.493599
523	1.62797
524	2.81707
525	4.05559
526	5.33753
527	6.65613
528	8.00392
529	9.37269
530	10.7536
531	12.137
532	13.5129
533	14.8705
534	16.1987
535	17.486
536	18.7207
537	19.8907
538	20.984
539	21.9886
540	22.8927
541	23.6847
542	24.3534
543	24.8882
544	25.2792
545	25.5172
546	25.594
547	25.5025
548	25.237
549	24.7931
550	24.1683
551	23.3617
552	22.3748
553	21.2111
554	19.8769
555	18.3809
556	16.7347
557	14.9528
558	13.0525
559	11.0541
560	8.98028
561	6.85636
562	4.70966
563	2.56916
564	0.465026
565	-1.57201
566	-3.51119
567	-5.32239
568	-6.97672
569	-8.44711
570	-9.70888
571	-10.7402
572	-11.5227
573	-12.0414
574	-12.2856
575	-12.2486
576	-11.928
577	-11.326
578	-10.4488
579	-9.30738
580	-7.91645
581	-6.29476
582	-4.46463
583	-2.45149
584	-0.283429
585	2.00938
586	4.39531
587	6.84191
588	9.31665
589	11.7876
590	14.224
591	16.5969
592	18.88
593	21.0495
594	23.085
595	24.9693
596	26.6888
597	28.2336
598	29.597
599	30.7756
600	31.7694
601	32.5807
602	33.2146
603	33.6779
604	33.9795
605	34.1293
606	34.138
607	34.0173
608	33.7785
609	33.4334
610	32.993
611	32.4682
612	31.8689
613	31.2044
614	30.4832
615	29.713
616	28.9007
617	28.0527
618	27.1749
619	26.2725
620	25.3507
621	24.4144
622	23.4684
623	22.5176
624	21.5667
625	20.6207
626	19.6848
627	18.7639
628	17.8631
629	16.9873
630	16.1413
631	15.3296
632	14.556
633	13.824
634	13.1365
635	12.4954
636	11.9021
637	11.3571
638	10.86
639	10.4097
640	10.0044
641	9.64141
642	9.31763
643	9.02938
644	8.77261
645	8.54295
646	8.33589
647	8.14683
648	7.97123
649	7.80471
650	7.64313
651	7.48268
652	7.31997
653	7.15208
654	6.97664
655	6.79182
656	6.59639
657	6.3897
658	6.17169
659	5.94284
660	5.70411
661	5.45693
662	5.20309
663	4.94466
664	4.68391
665	4.42326
666	4.16512
667	3.9119
668	3.66586
669	3.42912
670	3.20353
671	2.99071
672	2.79199
673	2.60838
674	2.44058
675	2.28899
676	2.1537
677	2.03454
678	1.93105
679	1.84255
680	1.76812
681	1.7067
682	1.65701
683	1.61771
684	1.5873
685	1.56425
686	1.54698
687	1.5339
688	1.52345
689	1.51411
690	1.50446
691	1.49316
692	1.479
693	1.46092
694	1.43801
695	1.4095
696	1.37479
697	1.33344
698	1.28511
699	1.2296
700	1.16681
701	1.0967
702	1.01932
703	0.934734
704	0.843063
705	0.744457
706	0.639106
707	0.527251
708	0.409201
709	0.285358
710	0.156234
711	0.0224797
712	-0.115101
713	-0.255535
714	-0.397679
715	-0.540221
716	-0.681704
717	-0.820549
718	-0.955097
719	-1.08365
720	-1.20452
721	-1.31609
722	-1.41685
723	-1.50545
724	-1.58071
725	-1.64171
726	-1.68773
727	-1.71829
728	-1.73316
729	-1.73231
730	-1.71594
731	-1.68439
732	-1.63819
733	-1.57797
734	-1.50446
735	-1.41847
736	-1.32084
737	-1.21245
738	-1.09417
739	-0.966877
740	-0.831422