# LAD - spectrometer data
#------------------------
 
# Measurement values: channel [#] - intensity [adu]
0	24
1	24
2	24
3	24
4	24
5	24
6	24
7	24
8	24
9	24
10	24
11	24
12	24
13	24
14	24
15	24
 
# Reconstruction values: lambda [nm] - intensity [%]
335	100
336	98.8961
337	97.7545
338	96.577
339	95.3657
340	94.1229
341	92.8518
342	91.5559
343	90.2391
344	88.9061
345	87.5621
346	86.213
347	84.8653
348	83.5261
349	82.203
350	80.9046
351	79.6394
352	78.417
353	77.2467
354	76.1385
355	75.1022
356	74.1473
357	73.2828
358	72.5172
359	71.8577
360	71.3098
361	70.8776
362	70.5624
363	70.3632
364	70.2756
365	70.2921
366	70.4014
367	70.5882
368	70.8337
369	71.1153
370	71.407
371	71.68
372	71.9035
373	72.0454
374	72.0733
375	71.956
376	71.6643
377	71.1722
378	70.4585
379	69.5068
380	68.3074
381	66.8567
382	65.1581
383	63.2214
384	61.0631
385	58.7049
386	56.1737
387	53.4998
388	50.7167
389	47.8591
390	44.9621
391	42.0604
392	39.1869
393	36.3719
394	33.6425
395	31.0219
396	28.5291
397	26.1785
398	23.9803
399	21.9399
400	20.0587
401	18.3347
402	16.7623
403	15.3336
404	14.0392
405	12.8683
406	11.8102
407	10.8545
408	9.99193
409	9.21468
410	8.51682
411	7.89437
412	7.34525
413	6.8691
414	6.46697
415	6.14092
416	5.89357
417	5.72763
418	5.64551
419	5.6489
420	5.73848
421	5.91368
422	6.17255
423	6.51166
424	6.92609
425	7.40952
426	7.95433
427	8.55169
428	9.19181
429	9.86408
430	10.5573
431	11.2599
432	11.9601
433	12.6463
434	13.307
435	13.9312
436	14.5087
437	15.03
438	15.4865
439	15.8709
440	16.1771
441	16.4001
442	16.5365
443	16.5841
444	16.5423
445	16.4117
446	16.1943
447	15.8931
448	15.5125
449	15.0578
450	14.535
451	13.9511
452	13.3135
453	12.6299
454	11.9086
455	11.1578
456	10.3858
457	9.60066
458	8.81039
459	8.02259
460	7.24451
461	6.48293
462	5.74413
463	5.03388
464	4.35735
465	3.71918
466	3.12339
467	2.57347
468	2.07232
469	1.6223
470	1.22522
471	0.882427
472	0.594749
473	0.362577
474	0.185872
475	0.064198
476	-0.00325052
477	-0.0176184
478	0.0196395
479	0.106788
480	0.24184
481	0.42259
482	0.646637
483	0.911423
484	1.21425
485	1.55234
486	1.92281
487	2.32275
488	2.74925
489	3.19938
490	3.67028
491	4.15913
492	4.6632
493	5.17987
494	5.70664
495	6.24114
496	6.78115
497	7.32462
498	7.86963
499	8.41444
500	8.95746
501	9.49728
502	10.0326
503	10.5623
504	11.0853
505	11.6007
506	12.1077
507	12.6057
508	13.0938
509	13.5715
510	14.0381
511	14.4932
512	14.9361
513	15.3662
514	15.7829
515	16.1855
516	16.5734
517	16.9458
518	17.3019
519	17.6408
520	17.9617
521	18.2636
522	18.5455
523	18.8064
524	19.0452
525	19.261
526	19.4525
527	19.6188
528	19.7589
529	19.8717
530	19.9564
531	20.0119
532	20.0374
533	20.0321
534	19.9951
535	19.9257
536	19.8231
537	19.6864
538	19.5149
539	19.3076
540	19.0634
541	18.7814
542	18.4603
543	18.0986
544	17.695
545	17.2478
546	16.7553
547	16.2158
548	15.6276
549	14.9892
550	14.2991
551	13.5563
552	12.7604
553	11.9114
554	11.0102
555	10.0587
556	9.05976
557	8.01758
558	6.93763
559	5.82684
560	4.69353
561	3.54744
562	2.39967
563	1.26252
564	0.149323
565	-0.92578
566	-1.94809
567	-2.90268
568	-3.77465
569	-4.5495
570	-5.21342
571	-5.75357
572	-6.1584
573	-6.41785
574	-6.52358
575	-6.46913
576	-6.25006
577	-5.86398
578	-5.31066
579	-4.5919
580	-3.71155
581	-2.67533
582	-1.49066
583	-0.16644
584	1.28723
585	2.85937
586	4.5384
587	6.31253
588	8.17006
589	10.0997
590	12.0907
591	14.1331
592	16.2182
593	18.3377
594	20.4844
595	22.652
596	24.8341
597	27.0249
598	29.2181
599	31.4068
600	33.5831
601	35.7378
602	37.8601
603	39.9374
604	41.9554
605	43.8978
606	45.7469
607	47.4836
608	49.0878
609	50.539
610	51.8165
611	52.9006
612	53.7723
613	54.4146
614	54.8122
615	54.9527
616	54.8264
617	54.427
618	53.7515
619	52.8005
620	51.5785
621	50.0934
622	48.3573
623	46.3857
624	44.1975
625	41.815
626	39.2634
627	36.5704
628	33.7656
629	30.8801
630	27.9462
631	24.996
632	22.0615
633	19.1736
634	16.3614
635	13.6523
636	11.0705
637	8.63782
638	6.37256
639	4.28981
640	2.40126
641	0.715291
642	-0.762917
643	-2.0312
644	-3.09019
645	-3.94305
646	-4.59521
647	-5.05411
648	-5.32891
649	-5.43028
650	-5.37015
651	-5.16148
652	-4.81806
653	-4.35436
654	-3.7853
655	-3.12608
656	-2.39204
657	-1.59847
658	-0.760416
659	0.107439
660	0.990976
661	1.87678
662	2.75229
663	3.60592
664	4.42717
665	5.20669
666	5.93636
667	6.60934
668	7.22001
669	7.76401
670	8.23817
671	8.64046
672	8.96992
673	9.22656
674	9.41129
675	9.52582
676	9.57256
677	9.55457
678	9.47543
679	9.33919
680	9.15032
681	8.91361
682	8.63413
683	8.31717
684	7.96822
685	7.59287
686	7.19681
687	6.78575
688	6.36536
689	5.94123
690	5.51879
691	5.10323
692	4.69945
693	4.31196
694	3.94479
695	3.60146
696	3.28486
697	2.99724
698	2.74012
699	2.51433
700	2.31996
701	2.15641
702	2.0224
703	1.91609
704	1.83511
705	1.77666
706	1.73765
707	1.71478
708	1.70464
709	1.70388
710	1.70923
711	1.71766
712	1.72646
713	1.73326
714	1.73614
715	1.73362
716	1.72473
717	1.70892
718	1.68615
719	1.65675
720	1.62144
721	1.5812
722	1.53728
723	1.49105
724	1.44398
725	1.39756
726	1.35324
727	1.31235
728	1.27613
729	1.24566
730	1.22182
731	1.20535
732	1.19679
733	1.19653
734	1.20478
735	1.22164
736	1.24708
737	1.28095
738	1.32304
739	1.37304
740	1.43063