# LAD - spectrometer data
#------------------------
 
# Measurement values: channel [#] - intensity [adu]
0	67
1	131
2	335
3	112
4	572
5	768
6	752
7	583
8	591
9	688
10	408
11	572
12	263
13	304
14	391
15	224
 
# Reconstruction values: lambda [nm] - intensity [%]
335	100
336	97.8175
337	95.5607
338	93.2315
339	90.8326
340	88.3675
341	85.8405
342	83.2568
343	80.6226
344	77.9451
345	75.2326
346	72.4948
347	69.7426
348	66.9881
349	64.245
350	61.5281
351	58.8538
352	56.2397
353	53.7046
354	51.2683
355	48.9516
356	46.7756
357	44.7621
358	42.9323
359	41.3069
360	39.9054
361	38.7453
362	37.8415
363	37.2058
364	36.8457
365	36.7638
366	36.9574
367	37.4177
368	38.1292
369	39.0698
370	40.2108
371	41.5169
372	42.9472
373	44.4558
374	45.9933
375	47.5083
376	48.9485
377	50.2635
378	51.4057
379	52.3323
380	53.0071
381	53.4013
382	53.4948
383	53.2764
384	52.7441
385	51.9047
386	50.7732
387	49.3719
388	47.7292
389	45.8781
390	43.8548
391	41.6975
392	39.4447
393	37.1339
394	34.8006
395	32.4774
396	30.1928
397	27.9712
398	25.832
399	23.7901
400	21.8557
401	20.0344
402	18.3284
403	16.7363
404	15.2547
405	13.8784
406	12.6018
407	11.419
408	10.3251
409	9.31675
410	8.39193
411	7.55068
412	6.79487
413	6.12798
414	5.55479
415	5.08095
416	4.71243
417	4.45502
418	4.31389
419	4.29307
420	4.39519
421	4.62115
422	4.97001
423	5.43884
424	6.02279
425	6.71511
426	7.50731
427	8.38929
428	9.34958
429	10.3755
430	11.4536
431	12.5695
432	13.7086
433	14.8562
434	15.9974
435	17.1178
436	18.2037
437	19.2419
438	20.2203
439	21.1278
440	21.9548
441	22.6927
442	23.3349
443	23.8758
444	24.3118
445	24.6405
446	24.8613
447	24.9749
448	24.9832
449	24.8896
450	24.6984
451	24.4149
452	24.0452
453	23.596
454	23.0744
455	22.4878
456	21.8439
457	21.1501
458	20.414
459	19.6427
460	18.8432
461	18.0219
462	17.1849
463	16.3375
464	15.4849
465	14.6314
466	13.7808
467	12.9365
468	12.1012
469	11.2771
470	10.466
471	9.66934
472	8.88796
473	8.12249
474	7.37324
475	6.64024
476	5.92337
477	5.22234
478	4.53675
479	3.8662
480	3.21024
481	2.56849
482	1.94065
483	1.32652
484	0.726073
485	0.139441
486	-0.433038
487	-0.990817
488	-1.53312
489	-2.05895
490	-2.56708
491	-3.05605
492	-3.52419
493	-3.96965
494	-4.39038
495	-4.78418
496	-5.14874
497	-5.48161
498	-5.78029
499	-6.04224
500	-6.26488
501	-6.44569
502	-6.58214
503	-6.67183
504	-6.71241
505	-6.7017
506	-6.63764
507	-6.51837
508	-6.34223
509	-6.10777
510	-5.81379
511	-5.45936
512	-5.04384
513	-4.5669
514	-4.02855
515	-3.42915
516	-2.76946
517	-2.05063
518	-1.27426
519	-0.442384
520	0.442456
521	1.37723
522	2.35839
523	3.38183
524	4.44292
525	5.53645
526	6.65668
527	7.7973
528	8.95149
529	10.1119
530	11.2708
531	12.4199
532	13.5506
533	14.654
534	15.7209
535	16.7421
536	17.708
537	18.6093
538	19.4366
539	20.1807
540	20.8325
541	21.3833
542	21.825
543	22.1496
544	22.35
545	22.4195
546	22.3523
547	22.1434
548	21.789
549	21.2862
550	20.6335
551	19.8306
552	18.8793
553	17.7825
554	16.5456
555	15.1756
556	13.6818
557	12.0759
558	10.3716
559	8.58467
560	6.73316
561	4.83687
562	2.91718
563	0.996732
564	-0.900995
565	-2.75211
566	-4.53278
567	-6.21974
568	-7.79076
569	-9.22508
570	-10.5039
571	-11.6105
572	-12.5311
573	-13.2542
574	-13.7718
575	-14.0787
576	-14.1726
577	-14.0548
578	-13.7291
579	-13.2023
580	-12.4839
581	-11.5854
582	-10.5208
583	-9.30536
584	-7.9558
585	-6.4896
586	-4.92465
587	-3.27879
588	-1.5694
589	0.187014
590	1.9751
591	3.78094
592	5.59222
593	7.3983
594	9.19022
595	10.9606
596	12.7033
597	14.4136
598	16.0874
599	17.7211
600	19.3116
601	20.8553
602	22.3485
603	23.7869
604	25.1653
605	26.4778
606	27.7179
607	28.8782
608	29.9508
609	30.9275
610	31.8001
611	32.5605
612	33.201
613	33.7148
614	34.096
615	34.3397
616	34.4426
617	34.4027
618	34.2196
619	33.8947
620	33.431
621	32.833
622	32.1072
623	31.2614
624	30.305
625	29.2489
626	28.1048
627	26.8859
628	25.6058
629	24.2787
630	22.9193
631	21.5418
632	20.1606
633	18.7892
634	17.4402
635	16.1254
636	14.8552
637	13.6386
638	12.4832
639	11.3951
640	10.3789
641	9.43782
642	8.57351
643	7.78655
644	7.07635
645	6.44131
646	5.87905
647	5.38646
648	4.95991
649	4.59535
650	4.28846
651	4.03473
652	3.82956
653	3.66836
654	3.54661
655	3.4599
656	3.40399
657	3.37483
658	3.3686
659	3.38171
660	3.41081
661	3.45278
662	3.50475
663	3.56407
664	3.62829
665	3.69517
666	3.76266
667	3.82887
668	3.89204
669	3.95058
670	4.00301
671	4.04796
672	4.08416
673	4.11045
674	4.12576
675	4.12913
676	4.11966
677	4.0966
678	4.05925
679	4.00708
680	3.93965
681	3.85668
682	3.75801
683	3.64368
684	3.51389
685	3.36904
686	3.20973
687	3.0368
688	2.85127
689	2.65442
690	2.44771
691	2.23282
692	2.01158
693	1.78596
694	1.55803
695	1.32989
696	1.10361
697	0.881192
698	0.664475
699	0.455103
700	0.254464
701	0.0636449
702	-0.116588
703	-0.285805
704	-0.443908
705	-0.591107
706	-0.727888
707	-0.854966
708	-0.97322
709	-1.08364
710	-1.18725
711	-1.28504
712	-1.37793
713	-1.46668
714	-1.55187
715	-1.63388
716	-1.71284
717	-1.78867
718	-1.86106
719	-1.92952
720	-1.9934
721	-2.05194
722	-2.10432
723	-2.14968
724	-2.18722
725	-2.21617
726	-2.23586
727	-2.24575
728	-2.24543
729	-2.23463
730	-2.2132
731	-2.18116
732	-2.13863
733	-2.08584
734	-2.02313
735	-1.95089
736	-1.8696
737	-1.77976
738	-1.68193
739	-1.57666
740	-1.46452