# LAD - spectrometer data
#------------------------
 
# Measurement values: channel [#] - intensity [adu]
0	67
1	131
2	335
3	112
4	568
5	768
6	743
7	575
8	590
9	684
10	408
11	572
12	263
13	295
14	391
15	220
 
# Reconstruction values: lambda [nm] - intensity [%]
335	100
336	97.8087
337	95.5427
338	93.204
339	90.7954
340	88.3203
341	85.783
342	83.1888
343	80.5437
344	77.8551
345	75.1314
346	72.3822
347	69.6185
348	66.8524
349	64.0976
350	61.3691
351	58.6833
352	56.0578
353	53.5116
354	51.0645
355	48.7374
356	46.5516
357	44.529
358	42.6908
359	41.0579
360	39.65
361	38.4847
362	37.577
363	36.9388
364	36.5778
365	36.4967
366	36.693
367	37.1577
368	37.8757
369	38.8247
370	39.9761
371	41.2946
372	42.7391
373	44.2638
374	45.8191
375	47.3533
376	48.8142
377	50.1508
378	51.3155
379	52.2653
380	52.9635
381	53.3813
382	53.4981
383	53.3026
384	52.7925
385	51.9744
386	50.8631
387	49.4808
388	47.8555
389	46.0203
390	44.0114
391	41.8666
392	39.6245
393	37.3225
394	34.9962
395	32.678
396	30.3964
397	28.1758
398	26.0357
399	23.9909
400	22.0517
401	20.2237
402	18.5091
403	16.9068
404	15.4133
405	14.0237
406	12.7323
407	11.5337
408	10.423
409	9.39712
410	8.45426
411	7.59471
412	6.82056
413	6.13551
414	5.54459
415	5.05362
416	4.66876
417	4.39596
418	4.24051
419	4.20655
420	4.29679
421	4.51218
422	4.85181
423	5.31278
424	5.89023
425	6.57738
426	7.3657
427	8.24507
428	9.20394
429	10.2296
430	11.3085
431	12.4262
432	13.5681
433	14.7192
434	15.8649
435	16.9905
436	18.0821
437	19.1266
438	20.1117
439	21.0264
440	21.8609
441	22.6066
442	23.2567
443	23.8057
444	24.2498
445	24.5867
446	24.8156
447	24.9371
448	24.9533
449	24.8673
450	24.6835
451	24.4071
452	24.0443
453	23.6016
454	23.0861
455	22.5054
456	21.8668
457	21.1781
458	20.4466
459	19.6796
460	18.8839
461	18.066
462	17.2319
463	16.3872
464	15.5368
465	14.6851
466	13.8359
467	12.9926
468	12.1579
469	11.3341
470	10.523
471	9.72587
472	8.94369
473	8.17708
474	7.42634
475	6.69154
476	5.97254
477	5.26908
478	4.58076
479	3.90719
480	3.24793
481	2.60263
482	1.97097
483	1.35281
484	0.748105
485	0.157021
486	-0.420091
487	-0.982659
488	-1.52989
489	-2.06076
490	-2.57401
491	-3.06817
492	-3.54154
493	-3.99224
494	-4.41819
495	-4.81716
496	-5.1868
497	-5.52466
498	-5.82819
499	-6.09482
500	-6.32195
501	-6.50701
502	-6.64746
503	-6.74085
504	-6.78483
505	-6.77716
506	-6.71578
507	-6.59878
508	-6.42448
509	-6.1914
510	-5.89832
511	-5.54429
512	-5.12863
513	-4.651
514	-4.11138
515	-3.51012
516	-2.84795
517	-2.12602
518	-1.34589
519	-0.509609
520	0.380302
521	1.32081
522	2.30837
523	3.33887
524	4.40766
525	5.50953
526	6.6387
527	7.78883
528	8.95306
529	10.124
530	11.2938
531	12.4543
532	13.5966
533	14.7118
534	15.7907
535	16.8239
536	17.8017
537	18.7148
538	19.5536
539	20.3087
540	20.9711
541	21.5319
542	21.9827
543	22.3157
544	22.5234
545	22.5991
546	22.5371
547	22.3321
548	21.9803
549	21.4786
550	20.8256
551	20.0211
552	19.0665
553	17.9651
554	16.7221
555	15.3447
556	13.8422
557	12.2264
558	10.511
559	8.71216
560	6.84792
561	4.93829
562	3.00484
563	1.0704
564	-0.841327
565	-2.70626
566	-4.50037
567	-6.2002
568	-7.78334
569	-9.22887
570	-10.5178
571	-11.6335
572	-12.5618
573	-13.2914
574	-13.814
575	-14.1245
576	-14.2209
577	-14.1041
578	-13.7783
579	-13.2502
580	-12.5295
581	-11.628
582	-10.5596
583	-9.33988
584	-7.98581
585	-6.51507
586	-4.94577
587	-3.29599
588	-1.58336
589	0.175366
590	1.9646
591	3.7702
592	5.57963
593	7.38206
594	9.16836
595	10.931
596	12.6638
597	14.3619
598	16.0213
599	17.6384
600	19.2101
601	20.7331
602	22.2038
603	23.6181
604	24.9713
605	26.2579
606	27.4715
607	28.6054
608	29.6521
609	30.604
610	31.4531
611	32.1919
612	32.8133
613	33.3107
614	33.6786
615	33.9126
616	34.0095
617	33.9675
618	33.7866
619	33.468
620	33.0148
621	32.4317
622	31.7247
623	30.9017
624	29.9719
625	28.9456
626	27.8345
627	26.6512
628	25.4089
629	24.1214
630	22.8028
631	21.4669
632	20.1276
633	18.7977
634	17.4896
635	16.2144
636	14.9822
637	13.8016
638	12.6799
639	11.6228
640	10.6346
641	9.71841
642	8.87571
643	8.10696
644	7.41149
645	6.78771
646	6.23323
647	5.74501
648	5.31951
649	4.95279
650	4.64069
651	4.37886
652	4.16291
653	3.98848
654	3.85128
655	3.74716
656	3.67214
657	3.62248
658	3.59463
659	3.5853
660	3.59143
661	3.61019
662	3.63899
663	3.67543
664	3.71733
665	3.76268
666	3.80963
667	3.85646
668	3.9016
669	3.94356
670	3.98098
671	4.01255
672	4.03708
673	4.05343
674	4.06052
675	4.05737
676	4.04308
677	4.0168
678	3.97781
679	3.92547
680	3.85926
681	3.77877
682	3.68378
683	3.57417
684	3.45004
685	3.31165
686	3.15949
687	2.99425
688	2.81683
689	2.62837
690	2.43022
691	2.22392
692	2.01121
693	1.79395
694	1.57412
695	1.35372
696	1.13478
697	0.919226
698	0.708881
699	0.505363
700	0.310052
701	0.124047
702	-0.0518638
703	-0.217216
704	-0.371867
705	-0.515977
706	-0.649973
707	-0.774511
708	-0.890411
709	-0.998603
710	-1.10006
711	-1.19572
712	-1.28646
713	-1.37301
714	-1.45593
715	-1.53557
716	-1.61205
717	-1.6853
718	-1.75502
719	-1.82073
720	-1.88179
721	-1.93747
722	-1.98697
723	-2.02947
724	-2.06418
725	-2.09036
726	-2.10738
727	-2.11469
728	-2.11192
729	-2.09881
730	-2.07522
731	-2.04117
732	-1.99679
733	-1.94232
734	-1.87808
735	-1.80449
736	-1.72199
737	-1.6311
738	-1.53236
739	-1.42631
740	-1.31353