# LAD - spectrometer data
#------------------------
 
# Measurement values: channel [#] - intensity [adu]
0	67
1	135
2	344
3	112
4	575
5	783
6	752
7	591
8	593
9	704
10	417
11	583
12	268
13	304
14	412
15	224
 
# Reconstruction values: lambda [nm] - intensity [%]
335	100
336	97.8157
337	95.5569
338	93.2257
339	90.8248
340	88.3576
341	85.8285
342	83.2426
343	80.6062
344	77.9263
345	75.2116
346	72.4714
347	69.7168
348	66.96
349	64.2144
350	61.4952
351	58.8185
352	56.2021
353	53.6647
354	51.2262
355	48.9073
356	46.7294
357	44.714
358	42.8825
359	41.2557
360	39.8529
361	38.6918
362	37.7873
363	37.1512
364	36.791
365	36.7094
366	36.9038
367	37.3652
368	38.0783
369	39.021
370	40.1644
371	41.4735
372	42.9072
373	44.4197
374	45.9615
375	47.4811
376	48.9264
377	50.2467
378	51.3944
379	52.3267
380	53.0073
381	53.4074
382	53.5068
383	53.2942
384	52.7676
385	51.9337
386	50.8074
387	49.4111
388	47.773
389	45.9261
390	43.9067
391	41.7528
392	39.5028
393	37.1944
394	34.863
395	32.541
396	30.2572
397	28.0357
398	25.8961
399	23.8532
400	21.9171
401	20.0937
402	18.3848
403	16.7894
404	15.304
405	13.9234
406	12.642
407	11.454
408	10.3548
409	9.34074
410	8.41007
411	7.56289
412	6.80112
413	6.12833
414	5.54938
415	5.06995
416	4.69609
417	4.43365
418	4.28782
419	4.26269
420	4.36089
421	4.58335
422	4.92913
423	5.39533
424	5.97708
425	6.66763
426	7.45847
427	8.33949
428	9.2992
429	10.3249
430	11.4031
431	12.5195
432	13.6593
433	14.8079
434	15.9503
435	17.0723
436	18.1598
437	19.1998
438	20.1801
439	21.0897
440	21.9187
441	22.6588
442	23.3032
443	23.8463
444	24.2845
445	24.6154
446	24.8383
447	24.9539
448	24.9642
449	24.8724
450	24.683
451	24.4012
452	24.033
453	23.5852
454	23.0648
455	22.4794
456	21.8365
457	21.1436
458	20.4082
459	19.6375
460	18.8384
461	18.0175
462	17.1806
463	16.3334
464	15.4808
465	14.6271
466	13.7763
467	12.9317
468	12.096
469	11.2715
470	10.4599
471	9.66259
472	8.88054
473	8.11435
474	7.36431
475	6.63048
476	5.91273
477	5.21078
478	4.52424
479	3.8527
480	3.19573
481	2.55294
482	1.92403
483	1.30882
484	0.707286
485	0.11956
486	-0.454014
487	-1.01288
488	-1.55626
489	-2.08315
490	-2.5923
491	-3.08225
492	-3.55133
493	-3.99767
494	-4.41921
495	-4.81374
496	-5.17892
497	-5.5123
498	-5.81136
499	-6.07355
500	-6.29627
501	-6.47696
502	-6.61311
503	-6.70225
504	-6.74206
505	-6.73029
506	-6.6649
507	-6.54398
508	-6.36584
509	-6.12903
510	-5.83231
511	-5.47473
512	-5.05563
513	-4.57466
514	-4.0318
515	-3.4274
516	-2.7622
517	-2.03733
518	-1.25438
519	-0.415394
520	0.477109
521	1.42009
522	2.40999
523	3.44271
524	4.51357
525	5.61735
526	6.74827
527	7.89998
528	9.06561
529	10.2378
530	11.4086
531	12.5697
532	13.7125
533	14.828
534	15.9069
535	16.9397
536	17.917
537	18.8292
538	19.6668
539	20.4204
540	21.081
541	21.6397
542	22.0881
543	22.4184
544	22.6232
545	22.6958
546	22.6303
547	22.4218
548	22.0662
549	21.5607
550	20.9038
551	20.0952
552	19.1366
553	18.0313
554	16.7844
555	15.4033
556	13.8973
557	12.2782
558	10.5598
559	8.7583
560	6.89179
561	4.98033
562	3.04552
563	1.11024
564	-0.801784
565	-2.66644
566	-4.45967
567	-6.158
568	-7.73899
569	-9.18174
570	-10.4672
571	-11.5788
572	-12.5023
573	-13.2266
574	-13.7432
575	-14.0472
576	-14.1364
577	-14.012
578	-13.678
579	-13.1413
580	-12.4117
581	-11.5009
582	-10.423
583	-9.19366
584	-7.82984
585	-6.34933
586	-4.77031
587	-3.11092
588	-1.38885
589	0.3791
590	2.1773
591	3.99158
592	5.80939
593	7.61991
594	9.41401
595	11.1842
596	12.9243
597	14.6295
598	16.2959
599	17.9198
600	19.4983
601	21.0281
602	22.5056
603	23.9267
604	25.2867
605	26.5801
606	27.8006
607	28.9411
608	29.9944
609	30.9526
610	31.8077
611	32.5522
612	33.1786
613	33.6805
614	34.0522
615	34.2891
616	34.388
617	34.3472
618	34.1662
619	33.8466
620	33.3911
621	32.8046
622	32.0931
623	31.2645
624	30.3279
625	29.2939
626	28.174
627	26.9811
628	25.7284
629	24.4298
630	23.0995
631	21.7516
632	20.3998
633	19.0573
634	17.7364
635	16.4485
636	15.2037
637	14.0107
638	12.8768
639	11.808
640	10.8085
641	9.88136
642	9.02828
643	8.24968
644	7.54491
645	6.9124
646	6.34975
647	5.85393
648	5.42139
649	5.0482
650	4.73016
651	4.46293
652	4.2421
653	4.0633
654	3.92221
655	3.81469
656	3.73673
657	3.68458
658	3.65466
659	3.64368
660	3.64854
661	3.6664
662	3.69463
663	3.73083
664	3.77277
665	3.81841
666	3.86586
667	3.91337
668	3.95932
669	4.00219
670	4.04056
671	4.0731
672	4.09854
673	4.11572
674	4.12352
675	4.1209
676	4.10693
677	4.08072
678	4.04152
679	3.98865
680	3.92157
681	3.83986
682	3.74327
683	3.6317
684	3.50524
685	3.36416
686	3.20898
687	3.04041
688	2.8594
689	2.66716
690	2.46509
691	2.25481
692	2.03815
693	1.81707
694	1.59365
695	1.37002
696	1.1483
697	0.930573
698	0.718753
699	0.514586
700	0.319562
701	0.134884
702	-0.0385694
703	-0.200255
704	-0.349969
705	-0.487828
706	-0.614238
707	-0.729853
708	-0.835517
709	-0.932204
710	-1.02095
711	-1.10281
712	-1.17875
713	-1.24964
714	-1.3162
715	-1.37894
716	-1.43817
717	-1.49399
718	-1.54629
719	-1.59477
720	-1.63898
721	-1.67834
722	-1.71219
723	-1.73984
724	-1.76061
725	-1.77383
726	-1.77894
727	-1.77543
728	-1.76293
729	-1.74119
730	-1.71006
731	-1.66952
732	-1.61965
733	-1.56064
734	-1.49277
735	-1.41637
736	-1.33184
737	-1.23963
738	-1.1402
739	-1.03404
740	-0.921664