# LAD - spectrometer data
#------------------------
 
# Measurement values: channel [#] - intensity [adu]
0	70
1	135
2	337
3	112
4	572
5	782
6	752
7	593
8	600
9	679
10	423
11	590
12	268
13	304
14	419
15	224
 
# Reconstruction values: lambda [nm] - intensity [%]
335	100
336	97.8099
337	95.5452
338	93.2078
339	90.8004
340	88.3267
341	85.7907
342	83.1978
343	80.5541
344	77.8669
345	75.1446
346	72.3969
347	69.6345
348	66.8699
349	64.1166
350	61.3895
351	58.7052
352	56.0812
353	53.5364
354	51.0907
355	48.765
356	46.5807
357	44.5594
358	42.7226
359	41.0911
360	39.6845
361	38.5205
362	37.6141
363	36.9772
364	36.6174
365	36.5375
366	36.7349
367	37.2008
368	37.9199
369	38.8701
370	40.0227
371	41.3423
372	42.7881
373	44.314
374	45.8705
375	47.406
376	48.8683
377	50.2064
378	51.3725
379	52.3238
380	53.0236
381	53.443
382	53.5615
383	53.3676
384	52.8592
385	52.0427
386	50.933
387	49.5521
388	47.9283
389	46.0943
390	44.0864
391	41.9425
392	39.701
393	37.3993
394	35.0729
395	32.7543
396	30.4719
397	28.2501
398	26.1083
399	24.0614
400	22.1195
401	20.2885
402	18.5703
403	16.9639
404	15.466
405	14.0715
406	12.7749
407	11.5707
408	10.4543
409	9.42244
410	8.47357
411	7.60798
412	6.82785
413	6.13695
414	5.54036
415	5.04398
416	4.65399
417	4.3764
418	4.21652
419	4.17853
420	4.26512
421	4.47728
422	4.81407
423	5.27259
424	5.84795
425	6.53339
426	7.32033
427	8.19862
428	9.15669
429	10.1818
430	11.2604
431	12.378
432	13.5199
433	14.6712
434	15.8171
435	16.943
436	18.0351
437	19.08
438	20.0656
439	20.9807
440	21.8155
441	22.5615
442	23.2118
443	23.761
444	24.2052
445	24.542
446	24.7707
447	24.8919
448	24.9077
449	24.8212
450	24.6367
451	24.3596
452	23.9959
453	23.5523
454	23.0358
455	22.454
456	21.8144
457	21.1245
458	20.3918
459	19.6236
460	18.8268
461	18.0078
462	17.1727
463	16.3269
464	15.4756
465	14.6231
466	13.7733
467	12.9295
468	12.0945
469	11.2706
470	10.4595
471	9.66265
472	8.88099
473	8.11514
474	7.36543
475	6.63194
476	5.91453
477	5.21295
478	4.52682
479	3.85574
480	3.1993
481	2.55711
482	1.9289
483	1.31448
484	0.713837
485	0.127111
486	-0.44535
487	-1.00299
488	-1.54502
489	-2.07043
490	-2.578
491	-3.06624
492	-3.5335
493	-3.97791
494	-4.39742
495	-4.78981
496	-5.15278
497	-5.48386
498	-5.78057
499	-6.04034
500	-6.2606
501	-6.43881
502	-6.57245
503	-6.65909
504	-6.69641
505	-6.68219
506	-6.61439
507	-6.49113
508	-6.31073
509	-6.07176
510	-5.77299
511	-5.4135
512	-4.99264
513	-4.51008
514	-3.96581
515	-3.3602
516	-2.69401
517	-1.96838
518	-1.18492
519	-0.345667
520	0.546826
521	1.48952
522	2.47884
523	3.51068
524	4.58036
525	5.68265
526	6.81178
527	7.96139
528	9.12461
529	10.2941
530	11.4619
531	12.6198
532	13.759
533	14.8707
534	15.9456
535	16.9743
536	17.9471
537	18.8548
538	19.6876
539	20.4364
540	21.092
541	21.6457
542	22.0891
543	22.4143
544	22.614
545	22.6815
546	22.611
547	22.3974
548	22.0369
549	21.5265
550	20.8647
551	20.0515
552	19.0883
553	17.9786
554	16.7274
555	15.342
556	13.8321
557	12.2091
558	10.487
559	8.68204
560	6.81225
561	4.89768
562	2.95998
563	1.022
564	-0.892527
565	-2.75948
566	-4.55482
567	-6.25508
568	-7.83785
569	-9.2822
570	-10.5692
571	-11.6821
572	-12.6069
573	-13.3323
574	-13.8501
575	-14.1551
576	-14.2454
577	-14.122
578	-13.789
579	-13.2534
580	-12.5247
581	-11.6149
582	-10.5379
583	-9.30932
584	-7.94615
585	-6.46609
586	-4.8873
587	-3.22784
588	-1.50534
589	0.263451
590	2.06298
591	3.87914
592	5.69944
593	7.51311
594	9.31106
595	11.0858
596	12.8313
597	14.5426
598	16.2157
599	17.8472
600	19.4338
601	20.9722
602	22.4588
603	23.8893
604	25.2589
605	26.5617
606	27.7914
607	28.9407
608	30.002
609	30.9672
610	31.8283
611	32.5772
612	33.2064
613	33.7091
614	34.0794
615	34.3126
616	34.4052
617	34.3554
618	34.1627
619	33.8283
620	33.3553
621	32.7482
622	32.0132
623	31.1583
624	30.1928
625	29.1273
626	27.9739
627	26.7454
628	25.4556
629	24.1188
630	22.7495
631	21.3622
632	19.9711
633	18.59
634	17.2316
635	15.9078
636	14.629
637	13.4045
638	12.242
639	11.1477
640	10.1263
641	9.18107
642	8.31397
643	7.5256
644	6.81546
645	6.18207
646	5.62308
647	5.13545
648	4.7156
649	4.35948
650	4.06277
651	3.82094
652	3.62934
653	3.48331
654	3.37825
655	3.30963
656	3.27308
657	3.26441
658	3.27963
659	3.31496
660	3.36686
661	3.43202
662	3.50736
663	3.59002
664	3.67736
665	3.76693
666	3.8565
667	3.94398
668	4.02748
669	4.10524
670	4.17564
671	4.2372
672	4.28856
673	4.32846
674	4.35578
675	4.36948
676	4.36864
677	4.35247
678	4.32029
679	4.27154
680	4.2058
681	4.12283
682	4.0225
683	3.90492
684	3.77035
685	3.61927
686	3.4524
687	3.27066
688	3.07524
689	2.86755
690	2.64921
691	2.42208
692	2.1882
693	1.94974
694	1.70898
695	1.46824
696	1.22983
697	0.995952
698	0.76868
699	0.549863
700	0.341081
701	0.143598
702	-0.0416661
703	-0.214151
704	-0.373656
705	-0.52032
706	-0.654585
707	-0.777156
708	-0.888936
709	-0.990965
710	-1.08436
711	-1.17022
712	-1.24962
713	-1.32348
714	-1.39258
715	-1.45751
716	-1.51863
717	-1.57608
718	-1.6298
719	-1.67954
720	-1.72486
721	-1.76522
722	-1.79999
723	-1.82849
724	-1.85003
725	-1.864
726	-1.8698
727	-1.86696
728	-1.8551
729	-1.83397
730	-1.80343
731	-1.76346
732	-1.71414
733	-1.65567
734	-1.58831
735	-1.51241
736	-1.42836
737	-1.33662
738	-1.23764
739	-1.13193
740	-1.01998